Angstroms	Transmission
      6508.37     0.013941923
      6508.75     0.012673934
      6509.13     0.015675223
      6509.52     0.016562786
      6509.90     0.014363915
      6510.28     0.013192729
      6510.67     0.013462715
      6511.05     0.011929825
      6511.43     0.021162872
      6511.82     0.012951334
      6512.20     0.024220406
      6512.58     0.012073926
      6512.96     0.014034325
      6513.35     0.014343286
      6513.73     0.013367475
      6514.11     0.013547914
      6514.50     0.013578378
      6514.88     0.014517247
      6515.26     0.012750926
      6515.65     0.013326987
      6516.03     0.013673143
      6516.41     0.014827303
      6516.79     0.013233329
      6517.18     0.013454842
      6517.56     0.013447486
      6517.94     0.012099214
      6518.33     0.012880916
      6518.71     0.014024760
      6519.09     0.013086292
      6519.48     0.013813112
      6519.86     0.014040562
      6520.24     0.014053541
      6520.62     0.014931170
      6521.01     0.014090539
      6521.39     0.013363318
      6521.77     0.013181209
      6522.16     0.013205023
      6522.54     0.014220263
      6522.92     0.014553195
      6523.30     0.014132744
      6523.69     0.015161987
      6524.07     0.013316206
      6524.45     0.014207367
      6524.84     0.014546553
      6525.22     0.014124783
      6525.60     0.015844918
      6525.99     0.015690877
      6526.37     0.015889509
      6526.75     0.016593397
      6527.13     0.015284314
      6527.52     0.015723542
      6527.90     0.015920398
      6528.28     0.016763880
      6528.67     0.017256218
      6529.05     0.019411612
      6529.43     0.015617585
      6529.82     0.016151321
      6530.20     0.016438711
      6530.58     0.018536081
      6530.96     0.016624316
      6531.35     0.017084430
      6531.73     0.018103262
      6532.11     0.017015197
      6532.50     0.019755856
      6532.88     0.017858695
      6533.26     0.025179701
      6533.65     0.020164947
      6534.03     0.024106796
      6534.41     0.022391923
      6534.79     0.018744871
      6535.18     0.020306547
      6535.56     0.020732550
      6535.94     0.022229866
      6536.33     0.020362284
      6536.71     0.020947138
      6537.09     0.021815349
      6537.48     0.022596921
      6537.86     0.022338857
      6538.24     0.022297415
      6538.62     0.021657373
      6539.01     0.023256814
      6539.39     0.022489270
      6539.77     0.023167522
      6540.16     0.023194654
      6540.54     0.021526167
      6540.92     0.024326785
      6541.30     0.024861400
      6541.69     0.024456405
      6542.07     0.024774775
      6542.45     0.022538960
      6542.84     0.023490509
      6543.22     0.025903614
      6543.60     0.025599175
      6543.99     0.024302891
      6544.37     0.025236728
      6544.75     0.026846505
      6545.13     0.026237560
      6545.52     0.026196734
      6545.90     0.026697670
      6546.28     0.026972295
      6546.67     0.028537150
      6547.05     0.028211955
      6547.43     0.027780174
      6547.82     0.028966113
      6548.20     0.030094178
      6548.58     0.033781751
      6548.96     0.030725536
      6549.35     0.031090768
      6549.73     0.031472607
      6550.11     0.036208824
      6550.50     0.037349241
      6550.88     0.039996537
      6551.26     0.039941148
      6551.65     0.041252635
      6552.03     0.048560062
      6552.41     0.049861256
      6552.79     0.054076216
      6553.18     0.059742288
      6553.56     0.065480550
      6553.94     0.070594847
      6554.33     0.081231887
      6554.71     0.090408225
      6555.09      0.10609618
      6555.47      0.12079104
      6555.86      0.13465398
      6556.24      0.15577215
      6556.62      0.18361028
      6557.01      0.21250704
      6557.39      0.24649676
      6557.77      0.28349506
      6558.16      0.32563823
      6558.54      0.36448923
      6558.92      0.41199564
      6559.30      0.45431218
      6559.69      0.48966889
      6560.07      0.53360285
      6560.45      0.55885788
      6560.84      0.58016293
      6561.22      0.60847347
      6561.60      0.62398233
      6561.99      0.63407555
      6562.37      0.63814486
      6562.75      0.64928500
      6563.13      0.66140245
      6563.52      0.66235458
      6563.90      0.67144528
      6564.28      0.66672449
      6564.67      0.67397859
      6565.05      0.67932142
      6565.43      0.68159875
      6565.81      0.68985747
      6566.20      0.68919272
      6566.58      0.68503020
      6566.96      0.69043887
      6567.35      0.68808696
      6567.73      0.69325367
      6568.11      0.68652161
      6568.50      0.68128147
      6568.88      0.68298654
      6569.26      0.67418535
      6569.65      0.67726717
      6570.03      0.67611620
      6570.41      0.67435058
      6570.79      0.66743952
      6571.18      0.66327244
      6571.56      0.66378969
      6571.94      0.66330935
      6572.33      0.65467467
      6572.71      0.64075667
      6573.09      0.62996565
      6573.47      0.61034665
      6573.86      0.58981257
      6574.24      0.55418545
      6574.62      0.51007629
      6575.01      0.47086216
      6575.39      0.42249967
      6575.77      0.37660611
      6576.16      0.33071769
      6576.54      0.28961554
      6576.92      0.24424269
      6577.30      0.20730835
      6577.69      0.17802159
      6578.07      0.15931459
      6578.45      0.12772572
      6578.84      0.10703283
      6579.22     0.094515029
      6579.60     0.080485953
      6579.99     0.070003125
      6580.37     0.063381221
      6580.75     0.054441517
      6581.13     0.048070474
      6581.52     0.042797402
      6581.90     0.038271109
      6582.28     0.037412070
      6582.67     0.032982361
      6583.05     0.030445700
      6583.43     0.028893461
      6583.81     0.026595984
      6584.20     0.026846839
      6584.58     0.023322958
      6584.96     0.022992668
      6585.35     0.020753440
      6585.73     0.022412001
      6586.11     0.026474769
      6586.50     0.019766235
      6586.88     0.019744905
      6587.26     0.018067379
      6587.64     0.017684306
      6588.03     0.019832224
      6588.41     0.018566435
      6588.79     0.017427612
      6589.18     0.017356050
      6589.56     0.016234509
      6589.94     0.016858062
      6590.33     0.017421125
      6590.71     0.015837312
      6591.09     0.015083927
      6591.47     0.015551172
      6591.86     0.016411529
      6592.24     0.015366213
      6592.62     0.015794806
      6593.01     0.017287479
      6593.39     0.015630073
      6593.77     0.016149871
      6594.16     0.016982604
      6594.54     0.015655847
      6594.92     0.014508254
      6595.30     0.015215475
      6595.69     0.015257233
      6596.07     0.014808281
      6596.45     0.016526637
      6596.84     0.014168254
      6597.22     0.016343966
      6597.60     0.017275533
      6597.98     0.015133228
      6598.37     0.017392521
      6598.75     0.014514328
      6599.13     0.013427825
      6599.52     0.013388067
      6599.90     0.014994829
      6600.28     0.027087302
      6600.67     0.016027449
      6601.05     0.015139405
      6601.43     0.014658899
      6601.81     0.013880393
      6602.20     0.014743982
