Angstroms	Transmission
      4805.00     0.050069757
      4805.39     0.048579567
      4805.79     0.052115544
      4806.18     0.062841735
      4806.58     0.050796287
      4806.97     0.048374906
      4807.37     0.050352165
      4807.76     0.046958218
      4808.16     0.086379696
      4808.55     0.048139881
      4808.94      0.10980585
      4809.34     0.047237077
      4809.73     0.048916636
      4810.13     0.050944095
      4810.52     0.049210702
      4810.92     0.049623949
      4811.31     0.048909451
      4811.71     0.050688868
      4812.10     0.048803481
      4812.50     0.047726610
      4812.89     0.049094480
      4813.29     0.050188570
      4813.68     0.048109213
      4814.08     0.054150833
      4814.47     0.048881766
      4814.87     0.046597313
      4815.26     0.048390613
      4815.66     0.052415876
      4816.05     0.046647021
      4816.45     0.049963951
      4816.84     0.049397851
      4817.24     0.048815609
      4817.63     0.051564186
      4818.03     0.048140675
      4818.42     0.047219232
      4818.82     0.046506628
      4819.21     0.047154238
      4819.61     0.049376523
      4820.00     0.050282526
      4820.40     0.048794326
      4820.79     0.050745843
      4821.19     0.047357926
      4821.58     0.050461976
      4821.97     0.049536480
      4822.37     0.046994224
      4822.76     0.051812742
      4823.16     0.048645582
      4823.55     0.050116468
      4823.95     0.050766081
      4824.34     0.048925339
      4824.74     0.050672328
      4825.13     0.050060615
      4825.53     0.052258385
      4825.92     0.050875964
      4826.32     0.064540834
      4826.71     0.049339522
      4827.11     0.049602477
      4827.50     0.051653765
      4827.90     0.054016036
      4828.29     0.050653365
      4828.69     0.051088777
      4829.08     0.052752294
      4829.48     0.051139951
      4829.87     0.058340866
      4830.27     0.050667412
      4830.66     0.084404658
      4831.06     0.054945813
      4831.45     0.074694708
      4831.85     0.058754325
      4832.24     0.052097805
      4832.64     0.055102323
      4833.03     0.054958851
      4833.43     0.057365195
      4833.82     0.054681596
      4834.21     0.054341080
      4834.61     0.055701633
      4835.00     0.058851740
      4835.40     0.057229122
      4835.79     0.056346749
      4836.19     0.055037697
      4836.58     0.056354344
      4836.98     0.057205570
      4837.37     0.056046796
      4837.77     0.057549040
      4838.16     0.058011616
      4838.56     0.059644842
      4838.95     0.060877289
      4839.35     0.062953667
      4839.74     0.060952510
      4840.14     0.058023264
      4840.53     0.060366560
      4840.93     0.063058792
      4841.32     0.063881566
      4841.72     0.065254410
      4842.11     0.065870284
      4842.51     0.068178759
      4842.90     0.067133998
      4843.30     0.067930168
      4843.69     0.074743299
      4844.09     0.071064264
      4844.48     0.072650715
      4844.88     0.075205953
      4845.27     0.074135749
      4845.67     0.076728049
      4846.06     0.078114568
      4846.46     0.092975616
      4846.85     0.079920477
      4847.24     0.085200000
      4847.64     0.085354478
      4848.03      0.10436433
      4848.43     0.094822456
      4848.82     0.098738668
      4849.22     0.099089590
      4849.61      0.10300054
      4850.01      0.12019915
      4850.40      0.11512726
      4850.80      0.12026770
      4851.19      0.12490165
      4851.59      0.13082227
      4851.98      0.13530296
      4852.38      0.14525176
      4852.77      0.15019222
      4853.17      0.16052357
      4853.56      0.17008608
      4853.96      0.17840192
      4854.35      0.18866450
      4854.75      0.20099948
      4855.14      0.21862087
      4855.54      0.22609819
      4855.93      0.24098488
      4856.33      0.26107993
      4856.72      0.27724678
      4857.12      0.29100666
      4857.51      0.31165833
      4857.91      0.32392302
      4858.30      0.34362861
      4858.70      0.36242463
      4859.09      0.38105558
      4859.48      0.39678987
      4859.88      0.41744030
      4860.27      0.43411787
      4860.67      0.44931560
      4861.06      0.46617544
      4861.46      0.51784021
      4861.85      0.49409685
      4862.25      0.50628514
      4862.64      0.51356626
      4863.04      0.52620677
      4863.43      0.53235257
      4863.83      0.53977308
      4864.22      0.54733562
      4864.62      0.54985082
      4865.01      0.55701618
      4865.41      0.55955196
      4865.80      0.56690316
      4866.20      0.56849654
      4866.59      0.56355435
      4866.99      0.56237244
      4867.38      0.56710551
      4867.78      0.56387312
      4868.17      0.55902307
      4868.57      0.56265586
      4868.96      0.56483476
      4869.36      0.55722004
      4869.75      0.54968430
      4870.15      0.54991706
      4870.54      0.54655247
      4870.94      0.53003123
      4871.33      0.52013011
      4871.73      0.51343775
      4872.12      0.50506952
      4872.51      0.49169051
      4872.91      0.47798437
      4873.30      0.46009960
      4873.70      0.44251548
      4874.09      0.42264743
      4874.49      0.41320457
      4874.88      0.38966262
      4875.28      0.36576598
      4875.67      0.35011455
      4876.07      0.33048450
      4876.46      0.31333736
      4876.86      0.32313936
      4877.25      0.27882038
      4877.65      0.25861554
      4878.04      0.25097253
      4878.44      0.22982466
      4878.83      0.21266726
      4879.23      0.20095609
      4879.62      0.18884627
      4880.02      0.17370034
      4880.41      0.16443606
      4880.81      0.15338903
      4881.20      0.15171734
      4881.60      0.13614196
      4881.99      0.12892475
      4882.39      0.12134186
      4882.78      0.11553432
      4883.18      0.11151395
      4883.57      0.10231157
      4883.97     0.099046179
      4884.36     0.093644117
      4884.75     0.092231597
      4885.15      0.11591065
      4885.54     0.083454408
      4885.94     0.078990133
      4886.33     0.075280639
      4886.73     0.072202797
      4887.12     0.073053823
      4887.52     0.069404446
      4887.91     0.067757415
      4888.31     0.065797820
      4888.70     0.062166044
      4889.10     0.059995381
      4889.49     0.060611274
      4889.89     0.057981884
      4890.28     0.055443953
      4890.68     0.055320124
      4891.07     0.053724193
      4891.47     0.053320379
      4891.86     0.051656920
      4892.26     0.051790790
      4892.65     0.051662200
      4893.05     0.050650240
      4893.44     0.050739113
      4893.84     0.049621820
      4894.23     0.047444629
      4894.63     0.046188722
      4895.02     0.045933991
      4895.42     0.044968001
      4895.81     0.046872356
      4896.21     0.043397080
      4896.60     0.046646567
      4897.00     0.045288120
      4897.39     0.042544799
      4897.78     0.045316712
      4898.18     0.041136414
      4898.57     0.041438182
      4898.97     0.041383570
      4899.36     0.042040862
      4899.76     0.093705331
      4900.15     0.041288006
      4900.55     0.040178075
      4900.94     0.040908082
      4901.34     0.039578572
      4901.73     0.039438651
